Asteroid designations ( Number, Name, Temporary designation): 25916, -,  K01C44P, 1973 GM, J73G00M
Observation was done on (UT) (format YYYY-MM-DD-hh): 2014 - 05 - 14 - 04:55
Observation was made by : O. Vaduvescu; E-mail; ovidiu.vaduvescu@gmail.com;
At observatory with UAI code: 950
Obsv. comments: INT/IDS instrument; If this spectrum is usefull please contact: ovidiu.vaduvescu@gmail.com; mpopescu@imcce.fr
The spectrum was published in the article: Unpublished; Contact:mpopescu@imcce.fr
The normalization of this spectrum was made for the wavelength: 0.550 microns.
Original name of the file was: n25916_bvshd140235.txt
Wavelength[um]	Reflectance	sigma(optional)
0.4017000 0.54456 0.03469
0.4037000 0.63358 0.03900
0.4064000 0.63062 0.03273
0.4098000 0.59621 0.03465
0.4125000 0.59799 0.02960
0.4147000 0.61741 0.03036
0.4164000 0.58005 0.03000
0.4180000 0.56999 0.02902
0.4201000 0.64807 0.02612
0.4217000 0.60233 0.02849
0.4233000 0.62135 0.02737
0.4251000 0.62323 0.02727
0.4270000 0.58793 0.02806
0.4287000 0.60430 0.03028
0.4306000 0.61504 0.02697
0.4324000 0.64048 0.02567
0.4340000 0.67478 0.02443
0.4357000 0.66857 0.02350
0.4373000 0.62342 0.02322
0.4389000 0.66098 0.02225
0.4406000 0.64807 0.02041
0.4422000 0.72121 0.02132
0.4439000 0.75049 0.02116
0.4455000 0.67892 0.01990
0.4471000 0.72003 0.02023
0.4488000 0.71234 0.01913
0.4504000 0.71264 0.01766
0.4521000 0.72417 0.01972
0.4537000 0.73196 0.01877
0.4553000 0.75749 0.01742
0.4570000 0.76627 0.01869
0.4586000 0.73916 0.01694
0.4602000 0.79249 0.01711
0.4619000 0.74044 0.01629
0.4635000 0.76035 0.01705
0.4652000 0.73304 0.01707
0.4668000 0.77760 0.01572
0.4684000 0.81703 0.01573
0.4701000 0.74211 0.01628
0.4717000 0.79062 0.01489
0.4734000 0.80944 0.01527
0.4750000 0.80146 0.01421
0.4766000 0.77839 0.01392
0.4783000 0.83074 0.01409
0.4799000 0.80659 0.01515
0.4816000 0.83547 0.01471
0.4832000 0.80580 0.01443
0.4848000 0.83862 0.01587
0.4865000 0.82029 0.01458
0.4881000 0.82256 0.01346
0.4897000 0.86514 0.01355
0.4914000 0.83951 0.01386
0.4930000 0.85716 0.01405
0.4947000 0.86090 0.01339
0.4963000 0.86642 0.01388
0.4979000 0.86376 0.01364
0.4996000 0.83576 0.01337
0.5012000 0.85952 0.01311
0.5028000 0.85923 0.01280
0.5045000 0.87875 0.01329
0.5061000 0.88328 0.01172
0.5078000 0.86978 0.01228
0.5094000 0.86327 0.01225
0.5110000 0.86209 0.01221
0.5127000 0.91946 0.01303
0.5143000 0.88387 0.01213
0.5159000 0.88703 0.01256
0.5176000 0.90605 0.01233
0.5192000 0.91956 0.01296
0.5209000 0.89826 0.01157
0.5225000 0.89412 0.01196
0.5241000 0.91147 0.01153
0.5258000 0.94509 0.01259
0.5274000 0.94913 0.01134
0.5290000 0.90822 0.01086
0.5307000 0.92961 0.01067
0.5323000 0.93661 0.01148
0.5340000 0.93228 0.01064
0.5356000 0.96954 0.01095
0.5372000 0.92350 0.01086
0.5389000 0.92961 0.01062
0.5405000 0.94470 0.01061
0.5421000 0.93957 0.01112
0.5438000 0.96481 0.01074
0.5454000 0.94549 0.01049
0.5470000 0.97121 0.01056
0.5487000 0.96007 0.00998
0.5503000 1.00000 0.01056
0.5520000 0.95791 0.01043
0.5536000 0.98886 0.01064
0.5552000 0.97190 0.00984
0.5569000 0.97466 0.01598
0.5585000 0.94834 0.01393
0.5601000 1.00138 0.00993
0.5618000 0.99566 0.00990
0.5634000 0.97762 0.00987
0.5650000 0.99428 0.00981
0.5667000 0.97486 0.00991
0.5683000 0.99744 0.01026
0.5699000 1.00660 0.00998
0.5716000 0.97772 0.00951
0.5732000 0.98768 0.00965
0.5749000 0.98847 0.00965
0.5765000 1.01173 0.00957
0.5781000 0.99813 0.00946
0.5798000 1.04890 0.00982
0.5814000 1.01932 0.01046
0.5830000 1.02967 0.00968
0.5847000 1.05797 0.00947
0.5863000 1.04446 0.00920
0.5879000 1.08015 0.01097
0.5896000 1.01351 0.01047
0.5912000 1.02356 0.00997
0.5929000 1.05323 0.00968
0.5945000 1.04959 0.00970
0.5961000 1.02583 0.00913
0.5978000 1.02928 0.00965
0.5994000 1.06073 0.00956
0.6010000 1.04623 0.00944
0.6027000 1.03825 0.00913
0.6043000 1.07009 0.00909
0.6059000 1.03904 0.00887
0.6076000 1.06625 0.00916
0.6092000 1.05964 0.00948
0.6108000 1.07463 0.00920
0.6125000 1.06723 0.00934
0.6141000 1.04121 0.00882
0.6158000 1.07196 0.00914
0.6174000 1.06546 0.00919
0.6190000 1.09671 0.00976
0.6207000 1.09099 0.00905
0.6223000 1.06861 0.00923
0.6239000 1.09158 0.00959
0.6256000 1.07364 0.00962
0.6272000 1.08192 0.00944
0.6288000 1.10272 0.01055
0.6305000 1.06418 0.01322
0.6321000 1.09119 0.01111
0.6337000 1.12047 0.00899
0.6354000 1.09267 0.00973
0.6370000 1.11445 0.00932
0.6387000 1.12727 0.00945
0.6403000 1.09809 0.00919
0.6419000 1.10913 0.00910
0.6436000 1.10716 0.00889
0.6452000 1.11248 0.00953
0.6468000 1.10647 0.00930
0.6485000 1.11682 0.00877
0.6501000 1.13348 0.00945
0.6517000 1.13141 0.00948
0.6534000 1.13151 0.00917
0.6550000 1.11603 0.00912
0.6567000 1.10716 0.00907
0.6583000 1.14748 0.00902
0.6599000 1.13220 0.00951
0.6616000 1.14846 0.00908
0.6632000 1.16660 0.00911
0.6648000 1.14038 0.00915
0.6665000 1.14531 0.00920
0.6681000 1.17123 0.00925
0.6697000 1.15733 0.00929
0.6714000 1.15655 0.00953
0.6730000 1.15852 0.00923
0.6747000 1.16857 0.00940
0.6763000 1.16512 0.00895
0.6779000 1.16108 0.00926
0.6796000 1.20160 0.00916
0.6812000 1.16798 0.00947
0.6828000 1.15191 0.01029
0.6845000 1.16759 0.00977
0.6861000 1.12865 0.01039
0.6877000 1.18898 0.01038
0.6894000 1.19706 0.01023
0.6910000 1.17429 0.01007
0.6927000 1.17754 0.00923
0.6943000 1.17340 0.01027
0.6959000 1.17123 0.00951
0.6976000 1.18040 0.00988
0.6992000 1.18819 0.00976
0.7008000 1.17252 0.00969
0.7025000 1.18415 0.00948
0.7041000 1.21757 0.00905
0.7058000 1.18878 0.00894
0.7074000 1.18021 0.00935
0.7090000 1.23097 0.00928
0.7107000 1.19884 0.00921
0.7123000 1.19144 0.00930
0.7139000 1.25099 0.00954
0.7156000 1.21136 0.00929
0.7172000 1.14787 0.00968
0.7189000 1.14955 0.00936
0.7205000 1.18504 0.00973
0.7221000 1.20741 0.00969
0.7238000 1.19953 0.01137
0.7254000 1.19608 0.00943
0.7270000 1.18987 0.01067
0.7287000 1.17873 0.01080
0.7303000 1.21007 0.00988
0.7320000 1.22368 0.01055
0.7336000 1.22388 0.01127
0.7354000 1.26124 0.01106
0.7373000 1.22999 0.01086
0.7389000 1.22821 0.01065
0.7406000 1.23403 0.01062
0.7422000 1.20869 0.01021
0.7438000 1.23304 0.02233
0.7455000 1.24004 0.01033
0.7471000 1.27573 0.01104
0.7488000 1.22161 0.01063
0.7504000 1.24438 0.01100
0.7520000 1.27021 0.01105
0.7537000 1.23531 0.01039
0.7553000 1.22240 0.01071
0.7570000 1.23216 0.01115
0.7586000 1.17370 0.01035
0.7602000 1.26627 0.01605
0.7619000 1.19982 0.01576
0.7635000 1.19164 0.01445
0.7652000 1.27583 0.01280
0.7668000 1.29229 0.01172
0.7684000 1.24389 0.01174
0.7701000 1.23038 0.01178
0.7717000 1.23078 0.01324
0.7734000 1.22516 0.01136
0.7750000 1.23590 0.01344
0.7766000 1.23758 0.01229
0.7783000 1.28135 0.01226
0.7799000 1.27238 0.01227
0.7816000 1.25907 0.01425
0.7832000 1.25237 0.01254
0.7848000 1.24911 0.01289
0.7865000 1.23561 0.01323
0.7881000 1.24566 0.01358
0.7898000 1.23492 0.01314
0.7914000 1.25365 0.01477
0.7931000 1.24024 0.01366
0.7947000 1.27543 0.01282
0.7963000 1.20929 0.01407
0.7980000 1.22259 0.01319
0.7996000 1.21875 0.01340
0.8013000 1.22328 0.01411
0.8029000 1.22319 0.01310
0.8045000 1.24990 0.01313
0.8062000 1.21668 0.01330
0.8078000 1.23531 0.01293
0.8170000 1.22052 0.01337
0.8411000 1.20150 0.01494
0.8428000 1.20140 0.02011
0.8444000 1.20160 0.01541
0.8461000 1.22319 0.01693
0.8477000 1.19805 0.01381
0.8493000 1.20702 0.01560
0.8510000 1.24280 0.01418
0.8526000 1.14452 0.01394
0.8543000 1.21954 0.01708
0.8559000 1.19785 0.01365
0.8576000 1.22220 0.01368
0.8592000 1.22407 0.01499
0.8609000 1.21816 0.01667
0.8625000 1.23787 0.02179
0.8642000 1.20278 0.01990
0.8658000 1.19933 0.02276
0.8675000 1.18109 0.01813
0.8691000 1.17390 0.01592
0.8708000 1.16788 0.01390
0.8724000 1.20012 0.01356
0.8741000 1.14136 0.01405
0.8757000 1.17202 0.02172
0.8773000 1.25986 0.02172
0.8790000 1.18188 0.01570
0.8806000 1.19006 0.01482
0.8823000 1.19351 0.02535
0.8839000 1.16995 0.01700
0.8856000 1.12352 0.01608
0.8872000 1.19391 0.01993
0.8889000 1.23492 0.02157
0.8905000 1.17991 0.02061
0.8922000 1.16315 0.02115
0.8938000 1.16778 0.01807
0.8955000 1.07650 0.02195
0.8971000 1.10154 0.01514
0.8988000 1.11386 0.01862
0.9004000 1.10814 0.01817
0.9021000 1.09040 0.01447
0.9037000 1.11682 0.01728
0.9054000 1.08655 0.01647
0.9070000 1.07532 0.01488
0.9087000 1.08705 0.01579
0.9103000 1.09050 0.01590
0.9120000 1.12796 0.01544
0.9136000 1.09966 0.01583
0.9153000 1.09395 0.01717
0.9170000 1.11623 0.01613
0.9186000 1.12037 0.01440
0.9209000 1.06575 0.01600
0.9227000 1.06634 0.01675
0.9244000 1.11731 0.01689
0.9260000 1.09710 0.01716
0.9277000 1.01962 0.01642
0.9293000 0.97920 0.02255
